wavelength,reflectivity
1300.0,48.18
1302.0,48.08
1304.0,48.03
1306.0,47.87
1308.0,47.98
1310.0,48.06
1312.0,48.0
1314.0,48.09
1316.0,48.14
1318.0,47.98
1320.0,47.97
1322.0,47.88
1324.0,47.78
1326.0,47.76
1328.0,47.61
1330.0,47.64
1332.0,47.83
1334.0,47.87
1336.0,47.83
1338.0,47.82
1340.0,47.74
1342.0,47.79
1344.0,47.85
1346.0,47.79
1348.0,47.79
1350.0,47.79
1352.0,47.79
1354.0,47.82
1356.0,47.85
1358.0,47.88
1360.0,47.91
1362.0,47.94
1364.0,47.98
1366.0,47.99
1368.0,48.0
1370.0,48.01
1372.0,48.01
1374.0,48.01
1376.0,48.02
1378.0,48.0
1380.0,47.95
1382.0,47.89
1384.0,47.79
1386.0,47.68
1388.0,47.49
1390.0,47.27
1392.0,47.05
1394.0,46.78
1396.0,46.5
1398.0,46.28
1400.0,46.06
1402.0,45.87
1404.0,45.72
1406.0,45.57
1408.0,45.46
1410.0,45.47
1412.0,45.61
1414.0,45.82
1416.0,46.09
1418.0,46.4
1420.0,46.72
1422.0,47.05
1424.0,47.35
1426.0,47.6
1428.0,47.8
1430.0,47.99
1432.0,48.16
1434.0,48.31
1436.0,48.42
1438.0,48.48
1440.0,48.62
1442.0,48.7
1444.0,48.77
1446.0,48.86
1448.0,48.93
1450.0,49.01
1452.0,49.11
1454.0,49.15
1456.0,49.18
1458.0,49.26
1460.0,49.34
1462.0,49.42
1464.0,49.49
1466.0,49.52
1468.0,49.57
1470.0,49.63
1472.0,49.7
1474.0,49.8
1476.0,49.88
1478.0,49.96
1480.0,50.04
1482.0,50.08
1484.0,50.18
1486.0,50.28
1488.0,50.36
1490.0,50.44
1492.0,50.54
1494.0,50.625
1496.0,50.73
1498.0,50.85
1500.0,50.92
1502.0,50.97
1504.0,51.05
1506.0,51.13
1508.0,51.22
1510.0,51.31
1512.0,51.39
1514.0,51.44
1516.0,51.51
1518.0,51.595
1520.0,51.66
1522.0,51.73
1524.0,51.82
1526.0,51.89
1528.0,51.955
1530.0,52.04
1532.0,52.1
1534.0,52.135
1536.0,52.22
1538.0,52.27
1540.0,52.34
1542.0,52.45
1544.0,52.54
1546.0,52.59
1548.0,52.65
1550.0,52.68
1552.0,52.73
1554.0,52.8
1556.0,52.86
1558.0,52.95
1560.0,53.05
1562.0,53.12
1564.0,53.16
1566.0,53.175
1568.0,53.26
1570.0,53.34
1572.0,53.4
1574.0,53.44
1576.0,53.5
1578.0,53.55
1580.0,53.62
1582.0,53.67
1584.0,53.74
1586.0,53.785
1588.0,53.81
1590.0,53.84
1592.0,53.92
1594.0,53.965
1596.0,54.03
1598.0,54.04
1600.0,54.06
1602.0,54.1
1604.0,54.14
1606.0,54.17
1608.0,54.22
1610.0,54.27
1612.0,54.31
1614.0,54.325
1616.0,54.37
1618.0,54.42
1620.0,54.47
1622.0,54.49
1624.0,54.53
1626.0,54.54
1628.0,54.55
1630.0,54.57
1632.0,54.63
1634.0,54.685
1636.0,54.68
1638.0,54.65
1640.0,54.64
1642.0,54.68
1644.0,54.7
1646.0,54.66
1648.0,54.59
1650.0,54.61
1652.0,54.65
1654.0,54.685
1656.0,54.73
1658.0,54.8
1660.0,54.86
1662.0,54.88
1664.0,54.85
1666.0,54.81
1668.0,54.79
1670.0,54.78
1672.0,54.78
1674.0,54.81
1676.0,54.865
1678.0,54.9
1680.0,54.86
1682.0,54.84
1684.0,54.865
1686.0,54.935
1688.0,54.98
1690.0,55.03
1692.0,55.03
1694.0,55.04
1696.0,55.06
1698.0,55.08
1700.0,55.13
1702.0,55.18
1704.0,55.18
1706.0,55.17
1708.0,55.17
1710.0,55.14
1712.0,55.115
1714.0,55.16
1716.0,55.18
1718.0,55.2
1720.0,55.2
1722.0,55.2
1724.0,55.22
1726.0,55.24
1728.0,55.21
1730.0,55.25
1732.0,55.26
1734.0,55.27
1736.0,55.25
1738.0,55.24
1740.0,55.26
1742.0,55.25
1744.0,55.23
1746.0,55.24
1748.0,55.23
1750.0,55.28
1752.0,55.31
1754.0,55.31
1756.0,55.34
1758.0,55.36
1760.0,55.35
1762.0,55.365
1764.0,55.39
1766.0,55.39
1768.0,55.4
1770.0,55.45
1772.0,55.43
1774.0,55.43
1776.0,55.43
1778.0,55.42
1780.0,55.44
1782.0,55.475
1784.0,55.475
1786.0,55.49
1788.0,55.475
1790.0,55.47
1792.0,55.49
1794.0,55.53
1796.0,55.54
1798.0,55.57
1800.0,55.57
1802.0,55.6
1804.0,55.61
1806.0,55.61
1808.0,55.62
1810.0,55.6
1812.0,55.57
1814.0,55.56
1816.0,55.54
1818.0,55.57
1820.0,55.59
1822.0,55.58
1824.0,55.58
1826.0,55.58
1828.0,55.56
1830.0,55.57
1832.0,55.57
1834.0,55.545
1836.0,55.53
1838.0,55.52
1840.0,55.49
1842.0,55.5
1844.0,55.51
1846.0,55.53
1848.0,55.545
1850.0,55.51
1852.0,55.51
1854.0,55.51
1856.0,55.5
1858.0,55.5
1860.0,55.44
1862.0,55.38
1864.0,55.295
1866.0,55.19
1868.0,55.115
1870.0,55.02
1872.0,54.9
1874.0,54.755
1876.0,54.59
1878.0,54.47
1880.0,54.31
1882.0,54.11
1884.0,53.86
1886.0,53.53
1888.0,53.17
1890.0,52.745
1892.0,52.27
1894.0,51.77
1896.0,51.235
1898.0,50.73
1900.0,50.22
1902.0,49.74
1904.0,49.38
1906.0,49.07
1908.0,48.84
1910.0,48.75
1912.0,48.76
1914.0,48.86
1916.0,48.99
1918.0,49.06
1920.0,49.17
1922.0,49.31
1924.0,49.47
1926.0,49.66
1928.0,49.82
1930.0,49.99
1932.0,50.08
1934.0,50.195
1936.0,50.33
1938.0,50.48
1940.0,50.625
1942.0,50.73
1944.0,50.79
1946.0,50.88
1948.0,50.94
1950.0,51.03
1952.0,51.1
1954.0,51.165
1956.0,51.26
1958.0,51.31
1960.0,51.37
1962.0,51.41
1964.0,51.47
1966.0,51.57
1968.0,51.64
1970.0,51.72
1972.0,51.79
1974.0,51.845
1976.0,51.98
1978.0,52.06
1980.0,52.12
1982.0,52.18
1984.0,52.24
1986.0,52.31
1988.0,52.41
1990.0,52.48
1992.0,52.565
1994.0,52.7
1996.0,52.79
1998.0,52.88
2000.0,52.94
2002.0,52.99
2004.0,53.09
2006.0,53.2
2008.0,53.33
2010.0,53.42
2012.0,53.53
2014.0,53.605
2016.0,53.68
2018.0,53.74
2020.0,53.785
2022.0,53.89
2024.0,53.965
2026.0,54.02
2028.0,54.075
2030.0,54.145
2032.0,54.2
2034.0,54.26
2036.0,54.325
2038.0,54.42
2040.0,54.48
2042.0,54.52
2044.0,54.52
2046.0,54.56
2048.0,54.61
2050.0,54.68
2052.0,54.78
2054.0,54.82
2056.0,54.85
2058.0,54.83
2060.0,54.82
2062.0,54.865
2064.0,54.9
2066.0,54.935
2068.0,54.98
2070.0,55.03
2072.0,55.02
2074.0,54.99
2076.0,54.97
2078.0,54.96
2080.0,54.96
2082.0,54.95
2084.0,54.98
2086.0,55.02
2088.0,55.01
2090.0,54.93
2092.0,54.89
2094.0,54.86
2096.0,54.83
2098.0,54.8
2100.0,54.75
2102.0,54.78
2104.0,54.78
2106.0,54.78
2108.0,54.77
2110.0,54.72
2112.0,54.685
2114.0,54.67
2116.0,54.64
2118.0,54.7
2120.0,54.7
2122.0,54.7
2124.0,54.7
2126.0,54.66
2128.0,54.68
2130.0,54.65
2132.0,54.62
2134.0,54.575
2136.0,54.575
2138.0,54.59
2140.0,54.59
2142.0,54.55
2144.0,54.5
2146.0,54.43
2148.0,54.39
2150.0,54.325
2152.0,54.28
2154.0,54.16
2156.0,54.02
2158.0,53.88
2160.0,53.74
2162.0,53.605
2164.0,53.48
2166.0,53.31
2168.0,53.14
2170.0,52.94
2172.0,52.72
2174.0,52.49
2176.0,52.22
2178.0,51.92
2180.0,51.595
2182.0,51.2
2184.0,50.77
2186.0,50.35
2188.0,49.93
2190.0,49.47
2192.0,49.03
2194.0,48.62
2196.0,48.35
2198.0,48.12
2200.0,47.96
2202.0,47.87
2204.0,47.86
2206.0,47.98
2208.0,48.2
2210.0,48.46
2212.0,48.77
2214.0,49.07
2216.0,49.4
2218.0,49.73
2220.0,50.08
2222.0,50.35
2224.0,50.61
2226.0,50.805
2228.0,51.01
2230.0,51.19
2232.0,51.29
2234.0,51.415
2236.0,51.52
2238.0,51.58
2240.0,51.61
2242.0,51.64
2244.0,51.7
2246.0,51.71
2248.0,51.63
2250.0,51.58
2252.0,51.58
2254.0,51.63
2256.0,51.68
2258.0,51.75
2260.0,51.86
2262.0,51.95
2264.0,52.02
2266.0,52.01
2268.0,52.01
2270.0,51.98
2272.0,51.98
2274.0,51.99
2276.0,51.95
2278.0,51.89
2280.0,51.86
2282.0,51.845
2284.0,51.84
2286.0,51.775
2288.0,51.71
2290.0,51.62
2292.0,51.54
2294.0,51.43
2296.0,51.28
2298.0,51.15
2300.0,50.98
2302.0,50.88
2304.0,50.78
2306.0,50.69
2308.0,50.56
2310.0,50.43
2312.0,50.28
2314.0,50.1
2316.0,49.97
2318.0,49.86
2320.0,49.72
2322.0,49.55
2324.0,49.37
2326.0,49.2
2328.0,49.05
2330.0,48.91
2332.0,48.77
2334.0,48.59
2336.0,48.45
2338.0,48.37
2340.0,48.3
2342.0,48.22
2344.0,48.12
2346.0,48.05
2348.0,48.01
2350.0,48.01
2352.0,48.04
2354.0,48.08
2356.0,48.07
2358.0,48.13
2360.0,48.2
2362.0,48.34
2364.0,48.44
2366.0,48.45
2368.0,48.38
2370.0,48.36
2372.0,48.37
2374.0,48.35
2376.0,48.3
2378.0,48.27
2380.0,48.19
2382.0,48.1
2384.0,48.07
2386.0,48.07
2388.0,48.07
2390.0,47.97
2392.0,47.85
2394.0,47.77
2396.0,47.74
2398.0,47.75
2400.0,47.69
2402.0,47.57
2404.0,47.51
2406.0,47.37
2408.0,47.2
2410.0,46.96
2412.0,46.78
2414.0,46.59
2416.0,46.45
2418.0,46.35
2420.0,46.2
2422.0,46.01
2424.0,45.85
2426.0,45.72
2428.0,45.53
2430.0,45.35
2432.0,45.15
2434.0,45.01
2436.0,44.87
2438.0,44.71
2440.0,44.61
2442.0,44.64
2444.0,44.68
2446.0,44.54
2448.0,44.44
2450.0,44.45
2452.0,44.44
2454.0,44.39
2456.0,44.38
2458.0,44.41
2460.0,44.42
2462.0,44.33
2464.0,44.25
2466.0,44.18
2468.0,44.16
2470.0,44.1
2472.0,44.06
2474.0,44.0
2476.0,43.91
2478.0,43.79
2480.0,43.75
2482.0,43.79
2484.0,43.81
2486.0,43.69
2488.0,43.57
2490.0,43.43
2492.0,43.36
2494.0,43.29
2496.0,43.27
2498.0,43.2
2500.0,43.24
