wavelength,reflectivity
1300.0,60.57
1302.0,60.56
1304.0,60.5
1306.0,60.42
1308.0,60.32
1310.0,60.16
1312.0,59.93
1314.0,60.08
1316.0,60.19
1318.0,60.035
1320.0,59.965
1322.0,60.02
1324.0,60.035
1326.0,60.1
1328.0,60.0
1330.0,59.81
1332.0,59.74
1334.0,59.65
1336.0,59.65
1338.0,59.69
1340.0,59.72
1342.0,59.7
1344.0,59.605
1346.0,59.5
1348.0,59.425
1350.0,59.39
1352.0,59.37
1354.0,59.34
1356.0,59.28
1358.0,59.23
1360.0,59.175
1362.0,59.1
1364.0,58.995
1366.0,58.86
1368.0,58.71
1370.0,58.54
1372.0,58.34
1374.0,58.13
1376.0,57.84
1378.0,57.54
1380.0,57.26
1382.0,56.97
1384.0,56.73
1386.0,56.5
1388.0,56.23
1390.0,55.88
1392.0,55.46
1394.0,54.99
1396.0,54.47
1398.0,53.92
1400.0,53.38
1402.0,52.84
1404.0,52.3
1406.0,51.7
1408.0,50.96
1410.0,50.1
1412.0,49.17
1414.0,48.36
1416.0,47.91
1418.0,47.92
1420.0,48.34
1422.0,48.94
1424.0,49.48
1426.0,49.84
1428.0,50.08
1430.0,50.26
1432.0,50.49
1434.0,50.74
1436.0,51.02
1438.0,51.29
1440.0,51.48
1442.0,51.59
1444.0,51.67
1446.0,51.74
1448.0,51.87
1450.0,52.06
1452.0,52.25
1454.0,52.46
1456.0,52.65
1458.0,52.78
1460.0,52.91
1462.0,53.02
1464.0,53.14
1466.0,53.27
1468.0,53.37
1470.0,53.46
1472.0,53.52
1474.0,53.6
1476.0,53.715
1478.0,53.87
1480.0,54.05
1482.0,54.27
1484.0,54.5
1486.0,54.74
1488.0,55.01
1490.0,55.27
1492.0,55.52
1494.0,55.76
1496.0,55.94
1498.0,56.11
1500.0,56.3
1502.0,56.49
1504.0,56.66
1506.0,56.82
1508.0,56.95
1510.0,57.055
1512.0,57.18
1514.0,57.28
1516.0,57.39
1518.0,57.5
1520.0,57.595
1522.0,57.7
1524.0,57.78
1526.0,57.86
1528.0,57.95
1530.0,58.025
1532.0,58.11
1534.0,58.19
1536.0,58.29
1538.0,58.4
1540.0,58.49
1542.0,58.56
1544.0,58.6
1546.0,58.63
1548.0,58.67
1550.0,58.72
1552.0,58.78
1554.0,58.83
1556.0,58.9
1558.0,58.96
1560.0,59.03
1562.0,59.065
1564.0,59.12
1566.0,59.14
1568.0,59.22
1570.0,59.24
1572.0,59.3
1574.0,59.355
1576.0,59.39
1578.0,59.425
1580.0,59.44
1582.0,59.45
1584.0,59.48
1586.0,59.49
1588.0,59.55
1590.0,59.63
1592.0,59.69
1594.0,59.7
1596.0,59.69
1598.0,59.71
1600.0,59.76
1602.0,59.785
1604.0,59.8
1606.0,59.81
1608.0,59.85
1610.0,59.88
1612.0,59.9
1614.0,59.89
1616.0,59.9
1618.0,59.96
1620.0,60.01
1622.0,60.05
1624.0,60.05
1626.0,60.05
1628.0,60.08
1630.0,60.09
1632.0,60.13
1634.0,60.13
1636.0,60.12
1638.0,60.13
1640.0,60.1
1642.0,60.12
1644.0,60.17
1646.0,60.19
1648.0,60.16
1650.0,60.14
1652.0,60.14
1654.0,60.17
1656.0,60.19
1658.0,60.18
1660.0,60.19
1662.0,60.16
1664.0,60.16
1666.0,60.13
1668.0,60.06
1670.0,60.035
1672.0,60.035
1674.0,60.03
1676.0,60.05
1678.0,60.07
1680.0,60.1
1682.0,60.12
1684.0,60.12
1686.0,60.08
1688.0,60.08
1690.0,60.05
1692.0,60.05
1694.0,60.05
1696.0,60.06
1698.0,60.07
1700.0,60.035
1702.0,60.03
1704.0,59.99
1706.0,59.96
1708.0,59.95
1710.0,59.91
1712.0,59.91
1714.0,59.89
1716.0,59.85
1718.0,59.81
1720.0,59.74
1722.0,59.74
1724.0,59.72
1726.0,59.71
1728.0,59.67
1730.0,59.64
1732.0,59.59
1734.0,59.56
1736.0,59.51
1738.0,59.49
1740.0,59.48
1742.0,59.48
1744.0,59.47
1746.0,59.42
1748.0,59.4
1750.0,59.355
1752.0,59.33
1754.0,59.31
1756.0,59.27
1758.0,59.21
1760.0,59.17
1762.0,59.12
1764.0,59.03
1766.0,58.97
1768.0,58.9
1770.0,58.815
1772.0,58.77
1774.0,58.71
1776.0,58.635
1778.0,58.55
1780.0,58.45
1782.0,58.37
1784.0,58.3
1786.0,58.27
1788.0,58.23
1790.0,58.17
1792.0,58.11
1794.0,58.04
1796.0,57.95
1798.0,57.89
1800.0,57.845
1802.0,57.82
1804.0,57.83
1806.0,57.82
1808.0,57.79
1810.0,57.77
1812.0,57.75
1814.0,57.71
1816.0,57.7
1818.0,57.68
1820.0,57.64
1822.0,57.61
1824.0,57.57
1826.0,57.55
1828.0,57.56
1830.0,57.52
1832.0,57.485
1834.0,57.415
1836.0,57.32
1838.0,57.22
1840.0,57.15
1842.0,57.09
1844.0,57.0
1846.0,56.87
1848.0,56.71
1850.0,56.57
1852.0,56.41
1854.0,56.23
1856.0,56.02
1858.0,55.78
1860.0,55.52
1862.0,55.22
1864.0,54.86
1866.0,54.38
1868.0,53.75
1870.0,53.04
1872.0,52.23
1874.0,51.4
1876.0,50.57
1878.0,49.72
1880.0,48.93
1882.0,48.09
1884.0,47.2
1886.0,46.26
1888.0,45.2
1890.0,44.1
1892.0,42.9
1894.0,41.61
1896.0,40.23
1898.0,38.78
1900.0,37.36
1902.0,36.07
1904.0,34.89
1906.0,33.85
1908.0,33.01
1910.0,32.38
1912.0,31.94
1914.0,31.63
1916.0,31.43
1918.0,31.345
1920.0,31.37
1922.0,31.46
1924.0,31.6
1926.0,31.82
1928.0,32.135
1930.0,32.63
1932.0,33.26
1934.0,34.0
1936.0,34.8
1938.0,35.62
1940.0,36.51
1942.0,37.35
1944.0,38.11
1946.0,38.78
1948.0,39.39
1950.0,39.96
1952.0,40.41
1954.0,40.77
1956.0,41.06
1958.0,41.32
1960.0,41.55
1962.0,41.74
1964.0,41.96
1966.0,42.15
1968.0,42.33
1970.0,42.52
1972.0,42.71
1974.0,42.93
1976.0,43.1
1978.0,43.27
1980.0,43.44
1982.0,43.66
1984.0,43.88
1986.0,44.1
1988.0,44.35
1990.0,44.61
1992.0,44.88
1994.0,45.15
1996.0,45.42
1998.0,45.68
2000.0,45.95
2002.0,46.23
2004.0,46.54
2006.0,46.82
2008.0,47.09
2010.0,47.37
2012.0,47.6
2014.0,47.85
2016.0,48.11
2018.0,48.38
2020.0,48.6
2022.0,48.83
2024.0,49.04
2026.0,49.24
2028.0,49.41
2030.0,49.55
2032.0,49.72
2034.0,49.92
2036.0,50.085
2038.0,50.195
2040.0,50.29
2042.0,50.42
2044.0,50.56
2046.0,50.7
2048.0,50.82
2050.0,50.89
2052.0,50.96
2054.0,51.07
2056.0,51.165
2058.0,51.23
2060.0,51.31
2062.0,51.38
2064.0,51.49
2066.0,51.56
2068.0,51.62
2070.0,51.68
2072.0,51.72
2074.0,51.77
2076.0,51.79
2078.0,51.8
2080.0,51.82
2082.0,51.84
2084.0,51.94
2086.0,52.025
2088.0,52.09
2090.0,52.1
2092.0,52.08
2094.0,52.09
2096.0,52.13
2098.0,52.16
2100.0,52.23
2102.0,52.24
2104.0,52.19
2106.0,52.18
2108.0,52.17
2110.0,52.22
2112.0,52.205
2114.0,52.2
2116.0,52.205
2118.0,52.19
2120.0,52.18
2122.0,52.135
2124.0,52.12
2126.0,52.12
2128.0,52.1
2130.0,52.08
2132.0,52.05
2134.0,52.025
2136.0,52.01
2138.0,51.97
2140.0,51.955
2142.0,51.93
2144.0,51.9
2146.0,51.89
2148.0,51.88
2150.0,51.88
2152.0,51.81
2154.0,51.74
2156.0,51.72
2158.0,51.71
2160.0,51.64
2162.0,51.595
2164.0,51.57
2166.0,51.56
2168.0,51.53
2170.0,51.47
2172.0,51.4
2174.0,51.3
2176.0,51.165
2178.0,51.03
2180.0,50.93
2182.0,50.805
2184.0,50.66
2186.0,50.49
2188.0,50.34
2190.0,50.195
2192.0,50.05
2194.0,49.89
2196.0,49.7
2198.0,49.48
2200.0,49.16
2202.0,48.86
2204.0,48.52
2206.0,48.13
2208.0,47.71
2210.0,47.29
2212.0,46.95
2214.0,46.62
2216.0,46.21
2218.0,45.63
2220.0,44.89
2222.0,44.23
2224.0,44.03
2226.0,44.43
2228.0,45.3
2230.0,46.29
2232.0,47.03
2234.0,47.47
2236.0,47.69
2238.0,47.83
2240.0,47.9
2242.0,47.9
2244.0,47.89
2246.0,47.79
2248.0,47.59
2250.0,47.4
2252.0,47.19
2254.0,47.16
2256.0,47.21
2258.0,47.33
2260.0,47.47
2262.0,47.55
2264.0,47.59
2266.0,47.57
2268.0,47.55
2270.0,47.54
2272.0,47.47
2274.0,47.3
2276.0,47.12
2278.0,46.98
2280.0,46.84
2282.0,46.7
2284.0,46.5
2286.0,46.29
2288.0,46.06
2290.0,45.86
2292.0,45.7
2294.0,45.54
2296.0,45.38
2298.0,45.17
2300.0,44.97
2302.0,44.79
2304.0,44.6
2306.0,44.43
2308.0,44.27
2310.0,44.07
2312.0,43.87
2314.0,43.66
2316.0,43.51
2318.0,43.31
2320.0,43.01
2322.0,42.72
2324.0,42.38
2326.0,42.09
2328.0,41.8
2330.0,41.62
2332.0,41.45
2334.0,41.31
2336.0,41.21
2338.0,41.17
2340.0,41.12
2342.0,41.06
2344.0,40.98
2346.0,40.89
2348.0,40.84
2350.0,40.73
2352.0,40.62
2354.0,40.41
2356.0,40.31
2358.0,40.19
2360.0,40.145
2362.0,40.04
2364.0,39.85
2366.0,39.55
2368.0,39.33
2370.0,39.15
2372.0,38.95
2374.0,38.74
2376.0,38.47
2378.0,38.31
2380.0,38.11
2382.0,37.93
2384.0,37.71
2386.0,37.5
2388.0,37.34
2390.0,37.09
2392.0,36.91
2394.0,36.66
2396.0,36.49
2398.0,36.28
2400.0,36.03
2402.0,35.83
2404.0,35.68
2406.0,35.49
2408.0,35.26
2410.0,35.0
2412.0,34.76
2414.0,34.54
2416.0,34.34
2418.0,34.23
2420.0,34.13
2422.0,34.0
2424.0,33.84
2426.0,33.69
2428.0,33.56
2430.0,33.4
2432.0,33.23
2434.0,33.03
2436.0,32.835
2438.0,32.68
2440.0,32.56
2442.0,32.47
2444.0,32.43
2446.0,32.35
2448.0,32.31
2450.0,32.315
2452.0,32.33
2454.0,32.3
2456.0,32.16
2458.0,31.93
2460.0,31.76
2462.0,31.67
2464.0,31.52
2466.0,31.37
2468.0,31.24
2470.0,31.07
2472.0,30.91
2474.0,30.91
2476.0,30.75
2478.0,30.44
2480.0,30.13
2482.0,29.99
2484.0,29.84
2486.0,29.63
2488.0,29.47
2490.0,29.37
2492.0,29.16
2494.0,28.84
2496.0,28.65
2498.0,28.59
2500.0,28.42
