wavelength,reflectivity
1300.0,58.6
1302.0,58.78
1304.0,58.79
1306.0,58.66
1308.0,58.72
1310.0,58.68
1312.0,58.56
1314.0,58.59
1316.0,58.56
1318.0,58.48
1320.0,58.48
1322.0,58.41
1324.0,58.385
1326.0,58.49
1328.0,58.56
1330.0,58.565
1332.0,58.51
1334.0,58.42
1336.0,58.41
1338.0,58.44
1340.0,58.42
1342.0,58.4
1344.0,58.385
1346.0,58.38
1348.0,58.385
1350.0,58.35
1352.0,58.3
1354.0,58.275
1356.0,58.3
1358.0,58.35
1360.0,58.385
1362.0,58.4
1364.0,58.41
1366.0,58.38
1368.0,58.36
1370.0,58.36
1372.0,58.36
1374.0,58.35
1376.0,58.33
1378.0,58.32
1380.0,58.3
1382.0,58.27
1384.0,58.24
1386.0,58.19
1388.0,58.15
1390.0,58.07
1392.0,57.99
1394.0,57.88
1396.0,57.8
1398.0,57.73
1400.0,57.66
1402.0,57.58
1404.0,57.47
1406.0,57.38
1408.0,57.34
1410.0,57.29
1412.0,57.26
1414.0,57.235
1416.0,57.21
1418.0,57.18
1420.0,57.16
1422.0,57.14
1424.0,57.14
1426.0,57.15
1428.0,57.16
1430.0,57.18
1432.0,57.21
1434.0,57.23
1436.0,57.23
1438.0,57.235
1440.0,57.235
1442.0,57.3
1444.0,57.305
1446.0,57.36
1448.0,57.39
1450.0,57.43
1452.0,57.45
1454.0,57.47
1456.0,57.5
1458.0,57.53
1460.0,57.55
1462.0,57.57
1464.0,57.58
1466.0,57.62
1468.0,57.68
1470.0,57.7
1472.0,57.73
1474.0,57.75
1476.0,57.81
1478.0,57.89
1480.0,57.94
1482.0,58.0
1484.0,58.01
1486.0,58.06
1488.0,58.13
1490.0,58.19
1492.0,58.26
1494.0,58.35
1496.0,58.4
1498.0,58.48
1500.0,58.54
1502.0,58.59
1504.0,58.65
1506.0,58.73
1508.0,58.8
1510.0,58.91
1512.0,58.96
1514.0,58.97
1516.0,58.96
1518.0,59.02
1520.0,59.13
1522.0,59.21
1524.0,59.27
1526.0,59.3
1528.0,59.35
1530.0,59.42
1532.0,59.49
1534.0,59.54
1536.0,59.57
1538.0,59.58
1540.0,59.58
1542.0,59.6
1544.0,59.64
1546.0,59.68
1548.0,59.74
1550.0,59.76
1552.0,59.83
1554.0,59.89
1556.0,59.91
1558.0,59.93
1560.0,59.91
1562.0,59.93
1564.0,59.965
1566.0,60.0
1568.0,60.02
1570.0,60.01
1572.0,60.035
1574.0,60.06
1576.0,60.12
1578.0,60.16
1580.0,60.2
1582.0,60.215
1584.0,60.24
1586.0,60.3
1588.0,60.34
1590.0,60.39
1592.0,60.42
1594.0,60.44
1596.0,60.48
1598.0,60.51
1600.0,60.48
1602.0,60.5
1604.0,60.53
1606.0,60.56
1608.0,60.575
1610.0,60.57
1612.0,60.54
1614.0,60.56
1616.0,60.56
1618.0,60.56
1620.0,60.59
1622.0,60.59
1624.0,60.62
1626.0,60.59
1628.0,60.55
1630.0,60.57
1632.0,60.6
1634.0,60.59
1636.0,60.62
1638.0,60.6
1640.0,60.575
1642.0,60.59
1644.0,60.62
1646.0,60.63
1648.0,60.64
1650.0,60.6
1652.0,60.57
1654.0,60.56
1656.0,60.55
1658.0,60.52
1660.0,60.51
1662.0,60.51
1664.0,60.51
1666.0,60.5
1668.0,60.47
1670.0,60.44
1672.0,60.46
1674.0,60.45
1676.0,60.46
1678.0,60.45
1680.0,60.42
1682.0,60.43
1684.0,60.45
1686.0,60.48
1688.0,60.48
1690.0,60.44
1692.0,60.41
1694.0,60.43
1696.0,60.43
1698.0,60.47
1700.0,60.48
1702.0,60.46
1704.0,60.44
1706.0,60.41
1708.0,60.38
1710.0,60.325
1712.0,60.3
1714.0,60.26
1716.0,60.25
1718.0,60.29
1720.0,60.28
1722.0,60.26
1724.0,60.25
1726.0,60.215
1728.0,60.21
1730.0,60.18
1732.0,60.11
1734.0,60.11
1736.0,60.11
1738.0,60.1
1740.0,60.08
1742.0,60.03
1744.0,59.965
1746.0,59.94
1748.0,59.88
1750.0,59.91
1752.0,59.94
1754.0,59.95
1756.0,59.96
1758.0,59.95
1760.0,59.93
1762.0,59.92
1764.0,59.9
1766.0,59.89
1768.0,59.91
1770.0,59.88
1772.0,59.855
1774.0,59.855
1776.0,59.855
1778.0,59.88
1780.0,59.9
1782.0,59.92
1784.0,59.965
1786.0,60.0
1788.0,60.03
1790.0,60.08
1792.0,60.09
1794.0,60.1
1796.0,60.1
1798.0,60.08
1800.0,60.07
1802.0,60.02
1804.0,60.01
1806.0,59.965
1808.0,59.94
1810.0,59.89
1812.0,59.84
1814.0,59.81
1816.0,59.73
1818.0,59.68
1820.0,59.605
1822.0,59.58
1824.0,59.55
1826.0,59.49
1828.0,59.425
1830.0,59.34
1832.0,59.22
1834.0,59.12
1836.0,59.02
1838.0,58.94
1840.0,58.86
1842.0,58.76
1844.0,58.68
1846.0,58.61
1848.0,58.52
1850.0,58.4
1852.0,58.27
1854.0,58.12
1856.0,57.98
1858.0,57.83
1860.0,57.69
1862.0,57.59
1864.0,57.45
1866.0,57.26
1868.0,57.04
1870.0,56.78
1872.0,56.515
1874.0,56.23
1876.0,55.86
1878.0,55.49
1880.0,55.08
1882.0,54.65
1884.0,54.2
1886.0,53.77
1888.0,53.44
1890.0,53.15
1892.0,52.94
1894.0,52.77
1896.0,52.73
1898.0,52.8
1900.0,52.85
1902.0,52.815
1904.0,52.73
1906.0,52.63
1908.0,52.54
1910.0,52.45
1912.0,52.34
1914.0,52.25
1916.0,52.205
1918.0,52.16
1920.0,52.1
1922.0,52.06
1924.0,52.0
1926.0,51.95
1928.0,51.93
1930.0,51.89
1932.0,51.91
1934.0,51.91
1936.0,51.91
1938.0,51.92
1940.0,51.92
1942.0,51.98
1944.0,52.01
1946.0,52.02
1948.0,52.07
1950.0,52.11
1952.0,52.16
1954.0,52.17
1956.0,52.2
1958.0,52.25
1960.0,52.29
1962.0,52.315
1964.0,52.35
1966.0,52.4
1968.0,52.43
1970.0,52.43
1972.0,52.44
1974.0,52.52
1976.0,52.62
1978.0,52.66
1980.0,52.67
1982.0,52.68
1984.0,52.71
1986.0,52.78
1988.0,52.83
1990.0,52.87
1992.0,52.925
1994.0,52.96
1996.0,52.97
1998.0,52.97
2000.0,52.9
2002.0,52.83
2004.0,52.72
2006.0,52.6
2008.0,52.49
2010.0,52.43
2012.0,52.47
2014.0,52.64
2016.0,52.89
2018.0,53.17
2020.0,53.535
2022.0,53.94
2024.0,54.34
2026.0,54.685
2028.0,54.9
2030.0,55.1
2032.0,55.31
2034.0,55.51
2036.0,55.7
2038.0,55.835
2040.0,55.99
2042.0,56.11
2044.0,56.18
2046.0,56.23
2048.0,56.31
2050.0,56.4
2052.0,56.49
2054.0,56.56
2056.0,56.61
2058.0,56.67
2060.0,56.69
2062.0,56.74
2064.0,56.79
2066.0,56.83
2068.0,56.86
2070.0,56.87
2072.0,56.91
2074.0,56.92
2076.0,56.96
2078.0,56.96
2080.0,56.9
2082.0,56.87
2084.0,56.87
2086.0,56.91
2088.0,56.94
2090.0,56.9
2092.0,56.875
2094.0,56.84
2096.0,56.79
2098.0,56.74
2100.0,56.73
2102.0,56.71
2104.0,56.64
2106.0,56.57
2108.0,56.51
2110.0,56.47
2112.0,56.46
2114.0,56.41
2116.0,56.41
2118.0,56.33
2120.0,56.26
2122.0,56.21
2124.0,56.16
2126.0,56.15
2128.0,56.03
2130.0,55.92
2132.0,55.85
2134.0,55.81
2136.0,55.76
2138.0,55.65
2140.0,55.56
2142.0,55.45
2144.0,55.34
2146.0,55.2
2148.0,55.03
2150.0,54.81
2152.0,54.575
2154.0,54.35
2156.0,54.17
2158.0,54.01
2160.0,53.88
2162.0,53.785
2164.0,53.75
2166.0,53.69
2168.0,53.605
2170.0,53.51
2172.0,53.45
2174.0,53.42
2176.0,53.37
2178.0,53.39
2180.0,53.43
2182.0,53.53
2184.0,53.62
2186.0,53.7
2188.0,53.75
2190.0,53.8
2192.0,53.81
2194.0,53.715
2196.0,53.63
2198.0,53.52
2200.0,53.43
2202.0,53.28
2204.0,53.14
2206.0,53.06
2208.0,53.01
2210.0,52.925
2212.0,52.81
2214.0,52.745
2216.0,52.7
2218.0,52.6
2220.0,52.47
2222.0,52.3
2224.0,52.13
2226.0,51.95
2228.0,51.76
2230.0,51.59
2232.0,51.38
2234.0,51.16
2236.0,50.93
2238.0,50.7
2240.0,50.48
2242.0,50.25
2244.0,49.97
2246.0,49.66
2248.0,49.36
2250.0,49.09
2252.0,48.78
2254.0,48.47
2256.0,48.11
2258.0,47.79
2260.0,47.51
2262.0,47.16
2264.0,46.86
2266.0,46.48
2268.0,46.17
2270.0,45.81
2272.0,45.45
2274.0,45.09
2276.0,44.7
2278.0,44.32
2280.0,43.91
2282.0,43.45
2284.0,42.94
2286.0,42.38
2288.0,41.86
2290.0,41.34
2292.0,40.79
2294.0,40.3
2296.0,39.84
2298.0,39.43
2300.0,39.01
2302.0,38.65
2304.0,38.33
2306.0,38.04
2308.0,37.77
2310.0,37.5
2312.0,37.22
2314.0,36.95
2316.0,36.77
2318.0,36.56
2320.0,36.34
2322.0,36.13
2324.0,35.925
2326.0,35.77
2328.0,35.61
2330.0,35.42
2332.0,35.19
2334.0,34.97
2336.0,34.81
2338.0,34.64
2340.0,34.45
2342.0,34.27
2344.0,34.07
2346.0,33.8
2348.0,33.5
2350.0,33.14
2352.0,32.88
2354.0,32.59
2356.0,32.34
2358.0,32.21
2360.0,32.15
2362.0,32.1
2364.0,32.09
2366.0,32.21
2368.0,32.44
2370.0,32.76
2372.0,33.195
2374.0,33.76
2376.0,34.46
2378.0,35.34
2380.0,36.445
2382.0,37.86
2384.0,39.34
2386.0,40.93
2388.0,42.42
2390.0,43.79
2392.0,44.93
2394.0,45.87
2396.0,46.56
2398.0,47.02
2400.0,47.39
2402.0,47.6
2404.0,47.69
2406.0,47.71
2408.0,47.62
2410.0,47.4
2412.0,47.12
2414.0,46.87
2416.0,46.61
2418.0,46.25
2420.0,45.83
2422.0,45.42
2424.0,45.1
2426.0,44.95
2428.0,44.73
2430.0,44.42
2432.0,44.14
2434.0,43.76
2436.0,43.35
2438.0,42.95
2440.0,42.58
2442.0,42.2
2444.0,41.76
2446.0,41.3
2448.0,40.86
2450.0,40.43
2452.0,39.99
2454.0,39.55
2456.0,39.02
2458.0,38.55
2460.0,37.91
2462.0,37.29
2464.0,36.62
2466.0,35.96
2468.0,35.29
2470.0,34.55
2472.0,33.94
2474.0,33.26
2476.0,32.56
2478.0,31.9
2480.0,31.22
2482.0,30.55
2484.0,29.97
2486.0,29.54
2488.0,29.02
2490.0,28.48
2492.0,28.06
2494.0,27.85
2496.0,27.555
2498.0,27.34
2500.0,27.18
