wavelength,reflectivity
1300.0,72.84
1302.0,72.81
1304.0,73.02
1306.0,73.27
1308.0,73.325
1310.0,73.23
1312.0,73.075
1314.0,72.79
1316.0,72.63
1318.0,72.25
1320.0,71.925
1322.0,71.8
1324.0,71.745
1326.0,71.67
1328.0,71.675
1330.0,71.45
1332.0,71.11
1334.0,70.775
1336.0,70.55
1338.0,70.44
1340.0,70.32
1342.0,70.2
1344.0,70.04
1346.0,69.87
1348.0,69.68
1350.0,69.48
1352.0,69.28
1354.0,69.1
1356.0,68.9
1358.0,68.67
1360.0,68.4
1362.0,68.15
1364.0,67.94
1366.0,67.71
1368.0,67.47
1370.0,67.22
1372.0,66.92
1374.0,66.59
1376.0,66.24
1378.0,65.82
1380.0,65.37
1382.0,64.85
1384.0,64.3
1386.0,63.7
1388.0,63.09
1390.0,62.37
1392.0,61.57
1394.0,60.69
1396.0,59.77
1398.0,58.815
1400.0,57.845
1402.0,56.92
1404.0,56.01
1406.0,55.115
1408.0,54.27
1410.0,53.48
1412.0,52.8
1414.0,52.26
1416.0,51.84
1418.0,51.54
1420.0,51.34
1422.0,51.25
1424.0,51.28
1426.0,51.4
1428.0,51.58
1430.0,51.83
1432.0,52.11
1434.0,52.46
1436.0,52.84
1438.0,53.22
1440.0,53.64
1442.0,54.06
1444.0,54.5
1446.0,54.92
1448.0,55.32
1450.0,55.75
1452.0,56.11
1454.0,56.47
1456.0,56.79
1458.0,57.04
1460.0,57.25
1462.0,57.41
1464.0,57.5
1466.0,57.53
1468.0,57.52
1470.0,57.51
1472.0,57.55
1474.0,57.68
1476.0,57.88
1478.0,58.17
1480.0,58.51
1482.0,58.9
1484.0,59.37
1486.0,59.84
1488.0,60.31
1490.0,60.755
1492.0,61.16
1494.0,61.54
1496.0,61.9
1498.0,62.22
1500.0,62.56
1502.0,62.87
1504.0,63.16
1506.0,63.42
1508.0,63.665
1510.0,63.93
1512.0,64.15
1514.0,64.37
1516.0,64.56
1518.0,64.72
1520.0,64.88
1522.0,65.05
1524.0,65.23
1526.0,65.41
1528.0,65.54
1530.0,65.63
1532.0,65.71
1534.0,65.78
1536.0,65.85
1538.0,65.91
1540.0,65.99
1542.0,66.09
1544.0,66.18
1546.0,66.25
1548.0,66.33
1550.0,66.38
1552.0,66.45
1554.0,66.49
1556.0,66.55
1558.0,66.61
1560.0,66.645
1562.0,66.68
1564.0,66.71
1566.0,66.76
1568.0,66.8
1570.0,66.825
1572.0,66.87
1574.0,66.91
1576.0,66.94
1578.0,66.98
1580.0,66.98
1582.0,67.0
1584.0,67.03
1586.0,67.03
1588.0,67.03
1590.0,67.05
1592.0,67.09
1594.0,67.15
1596.0,67.16
1598.0,67.15
1600.0,67.13
1602.0,67.17
1604.0,67.23
1606.0,67.29
1608.0,67.33
1610.0,67.35
1612.0,67.38
1614.0,67.39
1616.0,67.39
1618.0,67.39
1620.0,67.42
1622.0,67.43
1624.0,67.46
1626.0,67.52
1628.0,67.55
1630.0,67.57
1632.0,67.61
1634.0,67.64
1636.0,67.65
1638.0,67.65
1640.0,67.64
1642.0,67.63
1644.0,67.71
1646.0,67.78
1648.0,67.81
1650.0,67.81
1652.0,67.79
1654.0,67.78
1656.0,67.83
1658.0,67.83
1660.0,67.85
1662.0,67.85
1664.0,67.84
1666.0,67.85
1668.0,67.83
1670.0,67.82
1672.0,67.79
1674.0,67.79
1676.0,67.81
1678.0,67.84
1680.0,67.84
1682.0,67.85
1684.0,67.84
1686.0,67.82
1688.0,67.78
1690.0,67.72
1692.0,67.72
1694.0,67.74
1696.0,67.74
1698.0,67.72
1700.0,67.69
1702.0,67.64
1704.0,67.58
1706.0,67.54
1708.0,67.51
1710.0,67.435
1712.0,67.33
1714.0,67.23
1716.0,67.1
1718.0,67.005
1720.0,66.88
1722.0,66.73
1724.0,66.62
1726.0,66.52
1728.0,66.43
1730.0,66.34
1732.0,66.19
1734.0,66.01
1736.0,65.85
1738.0,65.72
1740.0,65.605
1742.0,65.53
1744.0,65.4
1746.0,65.19
1748.0,65.065
1750.0,64.97
1752.0,64.92
1754.0,64.91
1756.0,64.84
1758.0,64.79
1760.0,64.74
1762.0,64.67
1764.0,64.61
1766.0,64.56
1768.0,64.51
1770.0,64.44
1772.0,64.36
1774.0,64.33
1776.0,64.31
1778.0,64.3
1780.0,64.275
1782.0,64.24
1784.0,64.21
1786.0,64.14
1788.0,64.08
1790.0,64.04
1792.0,63.99
1794.0,63.93
1796.0,63.86
1798.0,63.81
1800.0,63.735
1802.0,63.69
1804.0,63.61
1806.0,63.54
1808.0,63.51
1810.0,63.48
1812.0,63.43
1814.0,63.34
1816.0,63.26
1818.0,63.125
1820.0,63.05
1822.0,62.945
1824.0,62.875
1826.0,62.81
1828.0,62.73
1830.0,62.63
1832.0,62.48
1834.0,62.335
1836.0,62.2
1838.0,62.04
1840.0,61.85
1842.0,61.61
1844.0,61.35
1846.0,61.07
1848.0,60.755
1850.0,60.5
1852.0,60.2
1854.0,59.87
1856.0,59.49
1858.0,59.04
1860.0,58.6
1862.0,58.11
1864.0,57.58
1866.0,57.0
1868.0,56.32
1870.0,55.545
1872.0,54.71
1874.0,53.81
1876.0,52.815
1878.0,51.71
1880.0,50.51
1882.0,49.24
1884.0,47.9
1886.0,46.44
1888.0,44.84
1890.0,43.13
1892.0,41.35
1894.0,39.49
1896.0,37.61
1898.0,35.74
1900.0,33.94
1902.0,32.29
1904.0,30.86
1906.0,29.67
1908.0,28.75
1910.0,28.07
1912.0,27.63
1914.0,27.41
1916.0,27.34
1918.0,27.43
1920.0,27.68
1922.0,28.07
1924.0,28.57
1926.0,29.08
1928.0,29.62
1930.0,30.22
1932.0,30.83
1934.0,31.49
1936.0,32.13
1938.0,32.745
1940.0,33.38
1942.0,33.94
1944.0,34.5
1946.0,35.01
1948.0,35.47
1950.0,35.91
1952.0,36.28
1954.0,36.66
1956.0,37.0
1958.0,37.37
1960.0,37.73
1962.0,38.06
1964.0,38.37
1966.0,38.62
1968.0,38.89
1970.0,39.15
1972.0,39.44
1974.0,39.73
1976.0,40.0
1978.0,40.31
1980.0,40.61
1982.0,40.9
1984.0,41.19
1986.0,41.48
1988.0,41.83
1990.0,42.16
1992.0,42.52
1994.0,42.85
1996.0,43.21
1998.0,43.59
2000.0,44.01
2002.0,44.46
2004.0,44.9
2006.0,45.32
2008.0,45.73
2010.0,46.15
2012.0,46.56
2014.0,47.01
2016.0,47.46
2018.0,47.91
2020.0,48.32
2022.0,48.69
2024.0,49.06
2026.0,49.41
2028.0,49.75
2030.0,50.06
2032.0,50.35
2034.0,50.67
2036.0,50.97
2038.0,51.25
2040.0,51.54
2042.0,51.75
2044.0,51.97
2046.0,52.16
2048.0,52.33
2050.0,52.49
2052.0,52.62
2054.0,52.77
2056.0,52.91
2058.0,53.01
2060.0,53.09
2062.0,53.175
2064.0,53.28
2066.0,53.38
2068.0,53.46
2070.0,53.5
2072.0,53.51
2074.0,53.53
2076.0,53.57
2078.0,53.63
2080.0,53.715
2082.0,53.77
2084.0,53.86
2086.0,53.91
2088.0,53.94
2090.0,54.01
2092.0,54.09
2094.0,54.145
2096.0,54.19
2098.0,54.24
2100.0,54.31
2102.0,54.38
2104.0,54.42
2106.0,54.48
2108.0,54.575
2110.0,54.63
2112.0,54.67
2114.0,54.73
2116.0,54.83
2118.0,54.9
2120.0,54.92
2122.0,54.89
2124.0,54.91
2126.0,54.98
2128.0,55.06
2130.0,55.11
2132.0,55.13
2134.0,55.11
2136.0,55.1
2138.0,55.115
2140.0,55.17
2142.0,55.23
2144.0,55.27
2146.0,55.31
2148.0,55.31
2150.0,55.31
2152.0,55.31
2154.0,55.28
2156.0,55.295
2158.0,55.31
2160.0,55.32
2162.0,55.33
2164.0,55.32
2166.0,55.34
2168.0,55.365
2170.0,55.39
2172.0,55.35
2174.0,55.29
2176.0,55.27
2178.0,55.28
2180.0,55.23
2182.0,55.15
2184.0,55.09
2186.0,55.07
2188.0,55.04
2190.0,55.01
2192.0,54.96
2194.0,54.91
2196.0,54.83
2198.0,54.78
2200.0,54.73
2202.0,54.68
2204.0,54.65
2206.0,54.57
2208.0,54.5
2210.0,54.43
2212.0,54.42
2214.0,54.42
2216.0,54.37
2218.0,54.34
2220.0,54.27
2222.0,54.26
2224.0,54.21
2226.0,54.17
2228.0,54.12
2230.0,54.07
2232.0,54.05
2234.0,54.03
2236.0,54.02
2238.0,54.04
2240.0,53.99
2242.0,53.93
2244.0,53.87
2246.0,53.82
2248.0,53.77
2250.0,53.7
2252.0,53.64
2254.0,53.55
2256.0,53.41
2258.0,53.28
2260.0,53.21
2262.0,53.19
2264.0,53.12
2266.0,53.07
2268.0,52.98
2270.0,52.84
2272.0,52.67
2274.0,52.565
2276.0,52.51
2278.0,52.42
2280.0,52.25
2282.0,52.11
2284.0,51.99
2286.0,51.92
2288.0,51.77
2290.0,51.62
2292.0,51.44
2294.0,51.29
2296.0,51.13
2298.0,50.93
2300.0,50.7
2302.0,50.53
2304.0,50.37
2306.0,50.23
2308.0,50.07
2310.0,49.89
2312.0,49.7
2314.0,49.51
2316.0,49.29
2318.0,49.05
2320.0,48.78
2322.0,48.54
2324.0,48.34
2326.0,48.15
2328.0,47.89
2330.0,47.62
2332.0,47.34
2334.0,47.06
2336.0,46.79
2338.0,46.53
2340.0,46.27
2342.0,45.94
2344.0,45.58
2346.0,45.3
2348.0,45.0
2350.0,44.73
2352.0,44.39
2354.0,44.01
2356.0,43.64
2358.0,43.26
2360.0,42.88
2362.0,42.58
2364.0,42.2
2366.0,41.88
2368.0,41.46
2370.0,41.06
2372.0,40.61
2374.0,40.2
2376.0,39.8
2378.0,39.44
2380.0,38.995
2382.0,38.54
2384.0,38.0
2386.0,37.53
2388.0,37.16
2390.0,36.71
2392.0,36.23
2394.0,35.73
2396.0,35.37
2398.0,35.02
2400.0,34.62
2402.0,34.14
2404.0,33.73
2406.0,33.285
2408.0,32.83
2410.0,32.38
2412.0,31.97
2414.0,31.61
2416.0,31.345
2418.0,31.1
2420.0,30.82
2422.0,30.52
2424.0,30.19
2426.0,29.89
2428.0,29.61
2430.0,29.34
2432.0,29.02
2434.0,28.74
2436.0,28.525
2438.0,28.37
2440.0,28.22
2442.0,27.99
2444.0,27.79
2446.0,27.6
2448.0,27.375
2450.0,27.17
2452.0,27.05
2454.0,27.0
2456.0,26.89
2458.0,26.74
2460.0,26.64
2462.0,26.45
2464.0,26.27
2466.0,26.11
2468.0,26.01
2470.0,25.82
2472.0,25.69
2474.0,25.54
2476.0,25.41
2478.0,25.28
2480.0,25.13
2482.0,25.03
2484.0,24.95
2486.0,24.74
2488.0,24.59
2490.0,24.45
2492.0,24.48
2494.0,24.38
2496.0,24.26
2498.0,24.07
2500.0,23.86
