wavelength,reflectivity
1300.0,88.75
1302.0,89.06
1304.0,89.25
1306.0,89.1
1308.0,89.01
1310.0,88.91
1312.0,88.88
1314.0,88.85
1316.0,88.78
1318.0,88.63
1320.0,88.52
1322.0,88.46
1324.0,88.57
1326.0,88.67
1328.0,88.76
1330.0,88.77
1332.0,88.69
1334.0,88.71
1336.0,88.83
1338.0,88.77
1340.0,88.76
1342.0,88.62
1344.0,88.54
1346.0,88.56
1348.0,88.63
1350.0,88.65
1352.0,88.69
1354.0,88.61
1356.0,88.53
1358.0,88.43
1360.0,88.4
1362.0,88.45
1364.0,88.56
1366.0,88.61
1368.0,88.57
1370.0,88.49
1372.0,88.36
1374.0,88.21
1376.0,87.94
1378.0,87.41
1380.0,86.29
1382.0,84.1
1384.0,80.44
1386.0,75.69
1388.0,70.82
1390.0,67.36
1392.0,66.34
1394.0,67.865
1396.0,71.03
1398.0,74.81
1400.0,78.25
1402.0,80.94
1404.0,82.79
1406.0,84.01
1408.0,84.76
1410.0,85.23
1412.0,85.5
1414.0,85.62
1416.0,85.68
1418.0,85.73
1420.0,85.8
1422.0,85.85
1424.0,85.87
1426.0,85.86
1428.0,85.81
1430.0,85.81
1432.0,85.8
1434.0,85.72
1436.0,85.65
1438.0,85.59
1440.0,85.58
1442.0,85.57
1444.0,85.56
1446.0,85.63
1448.0,85.72
1450.0,85.82
1452.0,85.94
1454.0,86.0
1456.0,86.07
1458.0,86.19
1460.0,86.27
1462.0,86.35
1464.0,86.41
1466.0,86.41
1468.0,86.43
1470.0,86.49
1472.0,86.54
1474.0,86.61
1476.0,86.69
1478.0,86.76
1480.0,86.79
1482.0,86.83
1484.0,86.88
1486.0,86.92
1488.0,86.99
1490.0,87.02
1492.0,87.02
1494.0,86.98
1496.0,86.92
1498.0,86.86
1500.0,86.81
1502.0,86.79
1504.0,86.79
1506.0,86.79
1508.0,86.84
1510.0,86.88
1512.0,86.92
1514.0,86.94
1516.0,86.93
1518.0,86.87
1520.0,86.79
1522.0,86.7
1524.0,86.63
1526.0,86.52
1528.0,86.39
1530.0,86.28
1532.0,86.23
1534.0,86.27
1536.0,86.33
1538.0,86.39
1540.0,86.45
1542.0,86.48
1544.0,86.55
1546.0,86.66
1548.0,86.76
1550.0,86.84
1552.0,86.91
1554.0,86.98
1556.0,87.07
1558.0,87.14
1560.0,87.2
1562.0,87.25
1564.0,87.28
1566.0,87.31
1568.0,87.33
1570.0,87.34
1572.0,87.38
1574.0,87.44
1576.0,87.52
1578.0,87.59
1580.0,87.63
1582.0,87.66
1584.0,87.68
1586.0,87.71
1588.0,87.74
1590.0,87.8
1592.0,87.84
1594.0,87.89
1596.0,87.95
1598.0,87.97
1600.0,88.0
1602.0,88.02
1604.0,88.02
1606.0,88.09
1608.0,88.14
1610.0,88.19
1612.0,88.24
1614.0,88.25
1616.0,88.28
1618.0,88.32
1620.0,88.32
1622.0,88.33
1624.0,88.33
1626.0,88.37
1628.0,88.45
1630.0,88.5
1632.0,88.52
1634.0,88.54
1636.0,88.57
1638.0,88.63
1640.0,88.67
1642.0,88.61
1644.0,88.59
1646.0,88.59
1648.0,88.62
1650.0,88.67
1652.0,88.67
1654.0,88.66
1656.0,88.67
1658.0,88.68
1660.0,88.7
1662.0,88.7
1664.0,88.7
1666.0,88.7
1668.0,88.69
1670.0,88.72
1672.0,88.71
1674.0,88.7
1676.0,88.68
1678.0,88.65
1680.0,88.62
1682.0,88.6
1684.0,88.59
1686.0,88.59
1688.0,88.59
1690.0,88.55
1692.0,88.55
1694.0,88.58
1696.0,88.57
1698.0,88.53
1700.0,88.5
1702.0,88.51
1704.0,88.53
1706.0,88.52
1708.0,88.49
1710.0,88.46
1712.0,88.44
1714.0,88.45
1716.0,88.41
1718.0,88.36
1720.0,88.37
1722.0,88.36
1724.0,88.36
1726.0,88.36
1728.0,88.32
1730.0,88.32
1732.0,88.32
1734.0,88.29
1736.0,88.3
1738.0,88.34
1740.0,88.36
1742.0,88.33
1744.0,88.27
1746.0,88.22
1748.0,88.21
1750.0,88.19
1752.0,88.12
1754.0,88.02
1756.0,87.95
1758.0,87.96
1760.0,87.96
1762.0,87.95
1764.0,87.93
1766.0,87.91
1768.0,87.95
1770.0,87.93
1772.0,87.87
1774.0,87.82
1776.0,87.78
1778.0,87.77
1780.0,87.74
1782.0,87.71
1784.0,87.7
1786.0,87.64
1788.0,87.6
1790.0,87.56
1792.0,87.54
1794.0,87.54
1796.0,87.52
1798.0,87.45
1800.0,87.38
1802.0,87.26
1804.0,87.18
1806.0,87.11
1808.0,87.03
1810.0,86.87
1812.0,86.69
1814.0,86.51
1816.0,86.4
1818.0,86.31
1820.0,86.22
1822.0,86.1
1824.0,85.97
1826.0,85.84
1828.0,85.71
1830.0,85.6
1832.0,85.54
1834.0,85.47
1836.0,85.46
1838.0,85.44
1840.0,85.41
1842.0,85.39
1844.0,85.36
1846.0,85.31
1848.0,85.22
1850.0,85.13
1852.0,85.03
1854.0,84.94
1856.0,84.86
1858.0,84.78
1860.0,84.69
1862.0,84.6
1864.0,84.46
1866.0,84.33
1868.0,84.19
1870.0,84.0
1872.0,83.84
1874.0,83.66
1876.0,83.5
1878.0,83.37
1880.0,83.27
1882.0,83.2
1884.0,83.16
1886.0,83.1
1888.0,82.99
1890.0,82.77
1892.0,82.56
1894.0,82.38
1896.0,82.2
1898.0,81.97
1900.0,81.74
1902.0,81.48
1904.0,81.31
1906.0,81.23
1908.0,81.14
1910.0,81.085
1912.0,81.04
1914.0,81.02
1916.0,81.085
1918.0,81.12
1920.0,81.17
1922.0,81.17
1924.0,81.16
1926.0,81.19
1928.0,81.15
1930.0,81.1
1932.0,81.08
1934.0,81.085
1936.0,81.15
1938.0,81.13
1940.0,81.06
1942.0,80.97
1944.0,80.85
1946.0,80.78
1948.0,80.74
1950.0,80.71
1952.0,80.65
1954.0,80.57
1956.0,80.58
1958.0,80.59
1960.0,80.59
1962.0,80.57
1964.0,80.52
1966.0,80.57
1968.0,80.64
1970.0,80.63
1972.0,80.56
1974.0,80.46
1976.0,80.29
1978.0,80.21
1980.0,80.08
1982.0,79.96
1984.0,79.92
1986.0,79.82
1988.0,79.8
1990.0,79.7
1992.0,79.575
1994.0,79.48
1996.0,79.37
1998.0,79.3
2000.0,79.28
2002.0,79.25
2004.0,79.16
2006.0,78.965
2008.0,78.73
2010.0,78.535
2012.0,78.47
2014.0,78.5
2016.0,78.605
2018.0,78.82
2020.0,79.1
2022.0,79.53
2024.0,80.0
2026.0,80.39
2028.0,80.63
2030.0,80.74
2032.0,80.88
2034.0,81.0
2036.0,81.02
2038.0,80.93
2040.0,80.8
2042.0,80.63
2044.0,80.46
2046.0,80.31
2048.0,80.19
2050.0,80.06
2052.0,79.9
2054.0,79.685
2056.0,79.55
2058.0,79.41
2060.0,79.24
2062.0,79.02
2064.0,78.66
2066.0,78.17
2068.0,77.47
2070.0,76.595
2072.0,75.58
2074.0,74.63
2076.0,74.0
2078.0,73.83
2080.0,74.1
2082.0,74.61
2084.0,75.01
2086.0,75.3
2088.0,75.5
2090.0,75.64
2092.0,75.84
2094.0,75.92
2096.0,76.07
2098.0,76.22
2100.0,76.34
2102.0,76.43
2104.0,76.43
2106.0,76.46
2108.0,76.38
2110.0,76.1
2112.0,75.71
2114.0,75.32
2116.0,75.15
2118.0,75.19
2120.0,75.18
2122.0,74.95
2124.0,74.47
2126.0,73.94
2128.0,73.6
2130.0,73.45
2132.0,73.49
2134.0,73.63
2136.0,73.74
2138.0,73.86
2140.0,74.01
2142.0,74.17
2144.0,74.34
2146.0,74.585
2148.0,74.95
2150.0,75.4
2152.0,75.66
2154.0,75.69
2156.0,75.64
2158.0,75.65
2160.0,75.61
2162.0,75.43
2164.0,75.12
2166.0,74.83
2168.0,74.54
2170.0,74.28
2172.0,74.03
2174.0,73.865
2176.0,73.88
2178.0,73.98
2180.0,74.15
2182.0,74.49
2184.0,74.94
2186.0,75.375
2188.0,75.64
2190.0,75.77
2192.0,75.83
2194.0,75.87
2196.0,75.93
2198.0,75.95
2200.0,75.93
2202.0,75.83
2204.0,75.7
2206.0,75.6
2208.0,75.52
2210.0,75.39
2212.0,75.22
2214.0,74.97
2216.0,74.75
2218.0,74.39
2220.0,73.82
2222.0,73.02
2224.0,71.76
2226.0,70.3
2228.0,68.93
2230.0,67.975
2232.0,67.72
2234.0,67.96
2236.0,68.52
2238.0,69.07
2240.0,69.36
2242.0,69.42
2244.0,69.26
2246.0,69.04
2248.0,68.76
2250.0,68.49
2252.0,68.15
2254.0,67.67
2256.0,67.2
2258.0,66.62
2260.0,66.0
2262.0,65.24
2264.0,64.47
2266.0,63.66
2268.0,62.695
2270.0,61.57
2272.0,60.18
2274.0,58.74
2276.0,57.16
2278.0,55.35
2280.0,53.25
2282.0,50.75
2284.0,48.1
2286.0,45.57
2288.0,43.81
2290.0,43.27
2292.0,44.03
2294.0,45.53
2296.0,46.8
2298.0,47.14
2300.0,46.35
2302.0,44.7
2304.0,42.51
2306.0,40.145
2308.0,38.025
2310.0,36.58
2312.0,36.1
2314.0,36.98
2316.0,38.83
2318.0,41.19
2320.0,43.55
2322.0,45.68
2324.0,47.68
2326.0,49.94
2328.0,52.48
2330.0,55.16
2332.0,57.48
2334.0,59.23
2336.0,60.64
2338.0,61.72
2340.0,62.46
2342.0,62.82
2344.0,62.79
2346.0,62.49
2348.0,61.99
2350.0,61.48
2352.0,60.86
2354.0,60.27
2356.0,59.88
2358.0,59.75
2360.0,59.71
2362.0,59.52
2364.0,59.19
2366.0,58.63
2368.0,57.72
2370.0,56.54
2372.0,55.28
2374.0,54.07
2376.0,52.925
2378.0,51.97
2380.0,51.15
2382.0,50.47
2384.0,49.84
2386.0,49.28
2388.0,48.8
2390.0,48.32
2392.0,48.15
2394.0,48.39
2396.0,49.21
2398.0,50.86
2400.0,53.07
2402.0,55.54
2404.0,57.71
2406.0,59.49
2408.0,60.65
2410.0,61.33
2412.0,61.56
2414.0,61.46
2416.0,61.15
2418.0,60.65
2420.0,59.98
2422.0,59.02
2424.0,57.93
2426.0,57.04
2428.0,56.71
2430.0,56.82
2432.0,56.94
2434.0,56.86
2436.0,56.66
2438.0,56.5
2440.0,56.53
2442.0,56.56
2444.0,56.57
2446.0,56.57
2448.0,56.4
2450.0,56.02
2452.0,55.475
2454.0,55.0
2456.0,54.52
2458.0,54.0
2460.0,53.3
2462.0,52.54
2464.0,51.955
2466.0,51.74
2468.0,51.99
2470.0,52.7
2472.0,53.73
2474.0,54.96
2476.0,56.33
2478.0,57.66
2480.0,58.49
2482.0,58.91
2484.0,58.96
2486.0,58.72
2488.0,58.38
2490.0,58.0
2492.0,57.56
2494.0,56.92
2496.0,56.5
2498.0,56.36
2500.0,56.37
